voltage (V), photocurrent (A)
0.000, -1.926576e-12
0.000, -2.099128e-12
0.000, -1.993792e-12
0.000, -1.987771e-12
0.000, -2.021881e-12
0.000, -2.03091e-12
0.000, -2.072042e-12
0.000, -1.947643e-12
0.000, -2.074049e-12
0.000, -1.998807e-12
0.500, 1.239786e-13
0.500, 8.586224e-14
0.500, 1.490552e-13
0.500, 2.072329e-13
0.500, 1.430368e-13
0.500, 2.433431e-13
0.500, 3.376312e-13
0.500, 2.483584e-13
0.500, 2.634045e-13
0.500, 3.807629e-13
1.000, 8.937896e-12
1.000, 8.718228e-12
1.000, 8.574792e-12
1.000, 8.422318e-12
1.000, 8.393234e-12
1.000, 8.117393e-12
1.000, 8.210681e-12
1.000, 8.198637e-12
1.000, 8.117394e-12
1.000, 8.104354e-12
1.500, 1.661434e-11
1.500, 1.622615e-11
1.500, 1.591822e-11
1.500, 1.554808e-11
1.500, 1.537756e-11
1.500, 1.518398e-11
1.500, 1.492217e-11
1.500, 1.488607e-11
1.500, 1.470853e-11
1.500, 1.462928e-11
2.000, 2.168884e-11
2.000, 2.154138e-11
2.000, 2.125852e-11
2.000, 2.110606e-11
2.000, 2.088338e-11
2.000, 2.053833e-11
2.000, 2.03668e-11
2.000, 2.024443e-11
2.000, 2.010099e-11
2.000, 2.004382e-11
2.500, 2.605517e-11
2.500, 2.551853e-11
2.500, 2.480536e-11
2.500, 2.444627e-11
2.500, 2.441316e-11
2.500, 2.38023e-11
2.500, 2.370599e-11
2.500, 2.341813e-11
2.500, 2.321951e-11
2.500, 2.305401e-11
3.000, 2.71435e-11
3.000, 2.666102e-11
3.000, 2.685561e-11
3.000, 2.644336e-11
3.000, 2.608124e-11
3.000, 2.605619e-11
3.000, 2.567803e-11
3.000, 2.542525e-11
3.000, 2.539314e-11
3.000, 2.521461e-11
3.500, 3.003736e-11
3.500, 2.959499e-11
3.500, 2.943851e-11
3.500, 2.912054e-11
3.500, 2.88136e-11
3.500, 2.86501e-11
3.500, 2.837225e-11
3.500, 2.81897e-11
3.500, 2.815359e-11
3.500, 2.803621e-11
4.000, 3.201737e-11
4.000, 3.180371e-11
4.000, 3.126708e-11
4.000, 3.101132e-11
4.000, 3.079464e-11
4.000, 3.081572e-11
4.000, 3.047467e-11
4.000, 3.034929e-11
4.000, 3.018677e-11
4.000, 3.003834e-11
4.500, 3.37587e-11
4.500, 3.334643e-11
4.500, 3.327121e-11
4.500, 3.280176e-11
4.500, 3.243664e-11
4.500, 3.24176e-11
4.500, 3.223604e-11
4.500, 3.225611e-11
4.500, 3.210164e-11
4.500, 3.192509e-11
5.000, 3.566152e-11
5.000, 3.531142e-11
5.000, 3.497742e-11
5.000, 3.459423e-11
5.000, 3.463336e-11
5.000, 3.470257e-11
5.000, 3.453709e-11
5.000, 3.422413e-11
5.000, 3.432241e-11
5.000, 3.451e-11
5.500, 3.781408e-11
5.500, 3.72935e-11
5.500, 3.689426e-11
5.500, 3.692836e-11
5.500, 3.68672e-11
5.500, 3.669167e-11
5.500, 3.655923e-11
5.500, 3.631853e-11
5.500, 3.624729e-11
5.500, 3.620917e-11
6.000, 3.837881e-11
6.000, 3.791239e-11
6.000, 3.789934e-11
6.000, 3.765559e-11
6.000, 3.726641e-11
6.000, 3.707682e-11
6.000, 3.69033e-11
6.000, 3.686017e-11
6.000, 3.674784e-11
6.000, 3.660841e-11
6.500, 3.932569e-11
6.500, 3.903581e-11
6.500, 3.880812e-11
6.500, 3.854632e-11
6.500, 3.838282e-11
6.500, 3.822436e-11
6.500, 3.771681e-11
6.500, 3.795353e-11
6.500, 3.786324e-11
6.500, 3.767267e-11
7.000, 4.076607e-11
7.000, 4.048223e-11
7.000, 4.008502e-11
7.000, 3.994658e-11
7.000, 3.963162e-11
7.000, 3.954637e-11
7.000, 3.960254e-11
7.000, 3.938188e-11
7.000, 3.920936e-11
7.000, 3.895356e-11
7.500, 4.183235e-11
7.500, 4.151237e-11
7.500, 4.130175e-11
7.500, 4.106399e-11
7.500, 4.086841e-11
7.500, 4.072195e-11
7.500, 4.066378e-11
7.500, 4.050932e-11
7.500, 4.046317e-11
7.500, 4.032778e-11
8.000, 4.3031e-11
8.000, 4.289856e-11
8.000, 4.268698e-11
8.000, 4.259368e-11
8.000, 4.232085e-11
8.000, 4.221654e-11
8.000, 4.208114e-11
8.000, 4.191762e-11
8.000, 4.187347e-11
8.000, 4.179425e-11
8.500, 4.401002e-11
8.500, 4.345733e-11
8.500, 4.34463e-11
8.500, 4.330888e-11
8.500, 4.315641e-11
8.500, 4.299291e-11
8.500, 4.300289e-11
8.500, 4.277424e-11
8.500, 4.271203e-11
8.500, 4.258265e-11
9.000, 4.488267e-11
9.000, 4.453558e-11
9.000, 4.422466e-11
9.000, 4.399294e-11
9.000, 4.371312e-11
9.000, 4.369506e-11
9.000, 4.347938e-11
9.000, 4.34503e-11
9.000, 4.323563e-11
9.000, 4.346132e-11
9.500, 4.555072e-11
9.500, 4.535511e-11
9.500, 4.511236e-11
9.500, 4.471015e-11
9.500, 4.485658e-11
9.500, 4.488969e-11
9.500, 4.480342e-11
9.500, 4.49198e-11
9.500, 4.490174e-11
9.500, 4.480742e-11
10.000, 4.635816e-11
10.000, 4.60442e-11
10.000, 4.603115e-11
10.000, 4.596696e-11
10.000, 4.584462e-11
10.000, 4.58787e-11
10.000, 4.557476e-11
10.000, 4.548047e-11
10.000, 4.518657e-11
10.000, 4.536013e-11
10.500, 4.732612e-11
10.500, 4.718368e-11
10.500, 4.70824e-11
10.500, 4.709038e-11
10.500, 4.690686e-11
10.500, 4.678148e-11
10.500, 4.666011e-11
10.500, 4.656679e-11
10.500, 4.648653e-11
10.500, 4.649462e-11
11.000, 4.883073e-11
11.000, 4.87645e-11
11.000, 4.845762e-11
11.000, 4.846461e-11
11.000, 4.847563e-11
11.000, 4.871639e-11
11.000, 4.908151e-11
11.000, 4.924699e-11
11.000, 4.910252e-11
11.000, 4.917177e-11
11.500, 4.908049e-11
11.500, 4.90253e-11
11.500, 4.890294e-11
11.500, 4.904641e-11
11.500, 4.875651e-11
11.500, 4.840342e-11
11.500, 4.821985e-11
11.500, 4.803529e-11
11.500, 4.805736e-11
11.500, 4.782165e-11
12.000, 5.011766e-11
12.000, 4.987491e-11
12.000, 4.954592e-11
12.000, 4.919986e-11
12.000, 4.917678e-11
12.000, 4.933428e-11
12.000, 4.941649e-11
12.000, 4.941247e-11
12.000, 4.912059e-11
12.000, 4.878862e-11
12.500, 5.059514e-11
12.500, 5.039246e-11
12.500, 5.0234e-11
12.500, 5.021093e-11
12.500, 5.013973e-11
12.500, 4.998526e-11
12.500, 4.996118e-11
12.500, 4.972744e-11
12.500, 4.972144e-11
12.500, 4.979165e-11
13.000, 5.154398e-11
13.000, 5.118692e-11
13.000, 5.110569e-11
13.000, 5.118189e-11
13.000, 5.119496e-11
13.000, 5.160819e-11
13.000, 5.1545e-11
13.000, 5.153697e-11
13.000, 5.154102e-11
13.000, 5.154799e-11
13.500, 5.230332e-11
13.500, 5.21679e-11
13.500, 5.182288e-11
13.500, 5.182587e-11
13.500, 5.158114e-11
13.500, 5.161224e-11
13.500, 5.136948e-11
13.500, 5.132834e-11
13.500, 5.134041e-11
13.500, 5.122605e-11
14.000, 5.325222e-11
14.000, 5.286405e-11
14.000, 5.25952e-11
14.000, 5.245978e-11
14.000, 5.247382e-11
14.000, 5.228024e-11
14.000, 5.212777e-11
14.000, 5.204051e-11
14.000, 5.213883e-11
14.000, 5.190511e-11
14.500, 5.344382e-11
14.500, 5.394233e-11
14.500, 5.370661e-11
14.500, 5.354913e-11
14.500, 5.357922e-11
14.500, 5.365244e-11
14.500, 5.358023e-11
14.500, 5.348393e-11
14.500, 5.335654e-11
14.500, 5.316996e-11
15.000, 5.470465e-11
15.000, 5.448297e-11
15.000, 5.460136e-11
15.000, 5.431849e-11
15.000, 5.423923e-11
15.000, 5.417408e-11
15.000, 5.421014e-11
15.000, 5.401554e-11
15.000, 5.395738e-11
15.000, 5.403762e-11
15.500, 5.531656e-11
15.500, 5.53125e-11
15.500, 5.487216e-11
15.500, 5.501359e-11
15.500, 5.505772e-11
15.500, 5.486712e-11
15.500, 5.485611e-11
15.500, 5.479292e-11
15.500, 5.464949e-11
15.500, 5.475279e-11
16.000, 5.626142e-11
16.000, 5.596248e-11
16.000, 5.57318e-11
16.000, 5.591035e-11
16.000, 5.563248e-11
16.000, 5.561746e-11
16.000, 5.535062e-11
16.000, 5.518414e-11
16.000, 5.548102e-11
16.000, 5.537972e-11
16.500, 5.678403e-11
16.500, 5.663758e-11
16.500, 5.630654e-11
16.500, 5.632059e-11
16.500, 5.628549e-11
16.500, 5.615412e-11
16.500, 5.611997e-11
16.500, 5.609192e-11
16.500, 5.569166e-11
16.500, 5.546798e-11
17.000, 5.698764e-11
17.000, 5.692846e-11
17.000, 5.699866e-11
17.000, 5.679705e-11
17.000, 5.664964e-11
17.000, 5.660047e-11
17.000, 5.658444e-11
17.000, 5.651715e-11
17.000, 5.621027e-11
17.000, 5.660749e-11
17.500, 5.783922e-11
17.500, 5.768578e-11
17.500, 5.75022e-11
17.500, 5.7756e-11
17.500, 5.742396e-11
17.500, 5.746109e-11
17.500, 5.719825e-11
17.500, 5.717317e-11
17.500, 5.7109e-11
17.500, 5.712806e-11
18.000, 5.81973e-11
18.000, 5.87851e-11
18.000, 5.916227e-11
18.000, 5.91392e-11
18.000, 5.903288e-11
18.000, 5.829359e-11
18.000, 5.846214e-11
18.000, 5.840593e-11
18.000, 5.846313e-11
18.000, 5.824449e-11
18.500, 5.941402e-11
18.500, 5.924353e-11
18.500, 5.915024e-11
18.500, 5.898576e-11
18.500, 5.892558e-11
18.500, 5.882422e-11
18.500, 5.913418e-11
18.500, 5.881318e-11
18.500, 5.862565e-11
18.500, 5.867375e-11
19.000, 6.004396e-11
19.000, 5.99166e-11
19.000, 5.982031e-11
19.000, 5.971099e-11
19.000, 5.951334e-11
19.000, 5.966681e-11
19.000, 5.950332e-11
19.000, 5.917528e-11
19.000, 5.942507e-11
19.000, 5.960862e-11
19.500, 6.183342e-11
19.500, 6.151846e-11
19.500, 6.125565e-11
19.500, 6.101893e-11
19.500, 6.095874e-11
19.500, 6.088853e-11
19.500, 6.098481e-11
19.500, 6.075612e-11
19.500, 6.057259e-11
19.500, 6.057958e-11
20.000, 6.150844e-11
20.000, 6.151246e-11
20.000, 6.154958e-11
20.000, 6.158371e-11
20.000, 6.142114e-11
20.000, 6.158967e-11
20.000, 6.16799e-11
20.000, 6.169698e-11
20.000, 6.190163e-11
20.000, 6.171008e-11
20.500, 6.249847e-11
20.500, 6.246736e-11
20.500, 6.240819e-11
20.500, 6.217647e-11
20.500, 6.219054e-11
20.500, 6.203399e-11
20.500, 6.205406e-11
20.500, 6.232691e-11
20.500, 6.221158e-11
20.500, 6.21193e-11
21.000, 6.331798e-11
21.000, 6.315949e-11
21.000, 6.302606e-11
21.000, 6.304812e-11
21.000, 6.298193e-11
21.000, 6.29027e-11
21.000, 6.286359e-11
21.000, 6.285755e-11
21.000, 6.272919e-11
21.000, 6.262685e-11
21.500, 6.405421e-11
21.500, 6.369007e-11
21.500, 6.349048e-11
21.500, 6.333001e-11
21.500, 6.333697e-11
21.500, 6.337716e-11
21.500, 6.320561e-11
21.500, 6.264089e-11
21.500, 6.261882e-11
21.500, 6.26238e-11
22.000, 6.473731e-11
22.000, 6.400606e-11
22.000, 6.385059e-11
22.000, 6.373423e-11
22.000, 6.349648e-11
22.000, 6.365397e-11
22.000, 6.35627e-11
22.000, 6.360983e-11
22.000, 6.343027e-11
22.000, 6.341124e-11
22.500, 6.488271e-11
22.500, 6.471521e-11
22.500, 6.461996e-11
22.500, 6.4646e-11
22.500, 6.444337e-11
22.500, 6.434912e-11
22.500, 6.445443e-11
22.500, 6.440326e-11
22.500, 6.44113e-11
22.500, 6.434111e-11
23.000, 6.563303e-11
23.000, 6.585069e-11
23.000, 6.456276e-11
23.000, 6.530503e-11
23.000, 6.515254e-11
23.000, 6.549863e-11
23.000, 6.52559e-11
23.000, 6.53371e-11
23.000, 6.543744e-11
23.000, 6.4977e-11
23.500, 6.591688e-11
23.500, 6.570826e-11
23.500, 6.607837e-11
23.500, 6.572532e-11
23.500, 6.575839e-11
23.500, 6.598814e-11
23.500, 6.58447e-11
23.500, 6.579953e-11
23.500, 6.585474e-11
23.500, 6.586175e-11
24.000, 6.678554e-11
24.000, 6.660699e-11
24.000, 6.680657e-11
24.000, 6.645754e-11
24.000, 6.638834e-11
24.000, 6.64094e-11
24.000, 6.640741e-11
24.000, 6.65458e-11
24.000, 6.631908e-11
24.000, 6.639637e-11
24.500, 6.745558e-11
24.500, 6.742746e-11
24.500, 6.726098e-11
24.500, 6.68828e-11
24.500, 6.716772e-11
24.500, 6.692393e-11
24.500, 6.690892e-11
24.500, 6.684872e-11
24.500, 6.704535e-11
24.500, 6.699417e-11
25.000, 6.751277e-11
25.000, 6.724292e-11
25.000, 6.748969e-11
25.000, 6.703029e-11
25.000, 6.708041e-11
25.000, 6.704535e-11
25.000, 6.715969e-11
25.000, 6.699722e-11
25.000, 6.66411e-11
25.000, 6.723591e-11
25.500, 7.002039e-11
25.500, 6.953897e-11
25.500, 6.930224e-11
25.500, 6.898731e-11
25.500, 6.922003e-11
25.500, 6.908053e-11
25.500, 6.875955e-11
25.500, 6.874951e-11
25.500, 6.90093e-11
25.500, 6.917383e-11
26.000, 7.036249e-11
26.000, 7.009163e-11
26.000, 6.994821e-11
26.000, 7.037452e-11
26.000, 6.98539e-11
26.000, 6.935438e-11
26.000, 6.90615e-11
26.000, 6.909461e-11
26.000, 6.895919e-11
26.000, 6.890195e-11
26.500, 6.987893e-11
26.500, 6.986594e-11
26.500, 6.968637e-11
26.500, 6.963024e-11
26.500, 6.964732e-11
26.500, 6.94567e-11
26.500, 6.950186e-11
26.500, 6.942664e-11
26.500, 6.936444e-11
26.500, 6.939448e-11
27.000, 7.088811e-11
27.000, 6.949381e-11
27.000, 6.94547e-11
27.000, 6.999436e-11
27.000, 6.96222e-11
27.000, 6.957107e-11
27.000, 6.939044e-11
27.000, 6.924602e-11
27.000, 6.910864e-11
27.000, 6.908056e-11
27.500, 7.052596e-11
27.500, 7.040762e-11
27.500, 7.023914e-11
27.500, 7.015986e-11
27.500, 7.001037e-11
27.500, 6.97897e-11
27.500, 6.981878e-11
27.500, 6.940558e-11
27.500, 6.956402e-11
27.500, 6.955703e-11
28.000, 7.04417e-11
28.000, 7.048481e-11
28.000, 7.050791e-11
28.000, 7.047077e-11
28.000, 7.030524e-11
28.000, 7.056408e-11
28.000, 7.030429e-11
28.000, 7.010564e-11
28.000, 7.040258e-11
28.000, 7.043767e-11
28.500, 7.233249e-11
28.500, 7.227631e-11
28.500, 7.22793e-11
28.500, 7.222416e-11
28.500, 7.184902e-11
28.500, 7.16524e-11
28.500, 7.122814e-11
28.500, 7.202551e-11
28.500, 7.167843e-11
28.500, 7.156212e-11
29.000, 7.241775e-11
29.000, 7.219004e-11
29.000, 7.229638e-11
29.000, 7.201252e-11
29.000, 7.082388e-11
29.000, 7.122912e-11
29.000, 7.106863e-11
29.000, 7.120605e-11
29.000, 7.106963e-11
29.000, 7.121809e-11
29.500, 7.333754e-11
29.500, 7.276781e-11
29.500, 7.283598e-11
29.500, 7.279489e-11
29.500, 7.285809e-11
29.500, 7.2826e-11
29.500, 7.212886e-11
29.500, 7.186605e-11
29.500, 7.165238e-11
29.500, 7.114886e-11
30.000, 7.249603e-11
30.000, 7.248195e-11
30.000, 7.258224e-11
30.000, 7.211481e-11
30.000, 7.203858e-11
30.000, 7.233648e-11
30.000, 7.205865e-11
30.000, 7.215297e-11
30.000, 7.205164e-11
30.000, 7.168251e-11
30.500, 2.150226e-11
30.500, 3.113969e-11
30.500, 3.339258e-11
30.500, 3.520311e-11
30.500, 3.691832e-11
30.500, 3.840689e-11
30.500, 3.985229e-11
30.500, 4.10349e-11
30.500, 4.231179e-11
30.500, 4.341617e-11
31.000, 6.075712e-11
31.000, 6.137298e-11
31.000, 6.162677e-11
31.000, 6.200594e-11
31.000, 6.220453e-11
31.000, 6.262485e-11
31.000, 6.30993e-11
31.000, 6.342928e-11
31.000, 6.359684e-11
31.000, 6.406424e-11
31.500, 6.878965e-11
31.500, 6.87766e-11
31.500, 6.882474e-11
31.500, 6.882273e-11
31.500, 6.883378e-11
31.500, 6.895719e-11
31.500, 6.897318e-11
31.500, 6.894209e-11
31.500, 6.912968e-11
31.500, 6.900331e-11
32.000, 7.13956e-11
32.000, 7.119699e-11
32.000, 7.099737e-11
32.000, 7.087499e-11
32.000, 7.094021e-11
32.000, 7.086803e-11
32.000, 7.09091e-11
32.000, 7.096326e-11
32.000, 7.100943e-11
32.000, 7.176176e-11
32.500, 7.276682e-11
32.500, 7.259028e-11
32.500, 7.256214e-11
32.500, 7.261228e-11
32.500, 7.2515e-11
32.500, 7.24488e-11
32.500, 7.249899e-11
32.500, 7.237053e-11
32.500, 7.254008e-11
32.500, 7.275574e-11
33.000, 7.392432e-11
33.000, 7.384009e-11
33.000, 7.40557e-11
33.000, 7.370164e-11
33.000, 7.369859e-11
33.000, 7.357123e-11
33.000, 7.34589e-11
33.000, 7.362243e-11
33.000, 7.412093e-11
33.000, 7.410886e-11
33.500, 7.509087e-11
33.500, 7.456932e-11
33.500, 7.452212e-11
33.500, 7.456225e-11
33.500, 7.47328e-11
33.500, 7.440177e-11
33.500, 7.443992e-11
33.500, 7.468263e-11
33.500, 7.452314e-11
33.500, 7.442279e-11
34.000, 7.601773e-11
34.000, 7.545096e-11
34.000, 7.540486e-11
34.000, 7.508487e-11
34.000, 7.488628e-11
34.000, 7.503369e-11
34.000, 7.495653e-11
34.000, 7.486525e-11
34.000, 7.499761e-11
34.000, 7.535775e-11
34.500, 7.67439e-11
34.500, 7.691846e-11
34.500, 7.692754e-11
34.500, 7.717627e-11
34.500, 7.743906e-11
34.500, 7.713814e-11
34.500, 7.714918e-11
34.500, 7.720737e-11
34.500, 7.711809e-11
34.500, 7.706689e-11
35.000, 7.807501e-11
35.000, 7.777811e-11
35.000, 7.766072e-11
35.000, 7.733575e-11
35.000, 7.681816e-11
35.000, 7.652024e-11
35.000, 7.643597e-11
35.000, 7.625144e-11
35.000, 7.637979e-11
35.000, 7.636482e-11
35.500, 7.802483e-11
35.500, 7.785732e-11
35.500, 7.774698e-11
35.500, 7.756446e-11
35.500, 7.758955e-11
35.500, 7.753633e-11
35.500, 7.736883e-11
35.500, 7.758651e-11
35.500, 7.757946e-11
35.500, 7.754038e-11
36.000, 7.851131e-11
36.000, 7.85615e-11
36.000, 7.851534e-11
36.000, 7.880524e-11
36.000, 7.892359e-11
36.000, 7.900381e-11
36.000, 7.881227e-11
36.000, 7.880323e-11
36.000, 7.889447e-11
36.000, 7.86809e-11
36.500, 7.977517e-11
36.500, 7.960468e-11
36.500, 7.963173e-11
36.500, 7.947324e-11
36.500, 7.969288e-11
36.500, 7.941108e-11
36.500, 7.932377e-11
36.500, 7.938702e-11
36.500, 7.928568e-11
36.500, 7.935793e-11
37.000, 7.989654e-11
37.000, 7.979926e-11
37.000, 7.962776e-11
37.000, 7.966589e-11
37.000, 7.958156e-11
37.000, 7.959064e-11
37.000, 7.911113e-11
37.000, 7.986342e-11
37.000, 7.973502e-11
37.000, 7.940008e-11
37.500, 8.004402e-11
37.500, 8.118046e-11
37.500, 8.089557e-11
37.500, 8.097988e-11
37.500, 8.1011e-11
37.500, 8.108817e-11
37.500, 8.092473e-11
37.500, 8.077426e-11
37.500, 8.090661e-11
37.500, 8.100396e-11
38.000, 8.189669e-11
38.000, 8.195082e-11
38.000, 8.160377e-11
38.000, 8.176925e-11
38.000, 8.171205e-11
38.000, 8.164291e-11
38.000, 8.174724e-11
38.000, 8.142121e-11
38.000, 8.145432e-11
38.000, 8.159076e-11
38.500, 8.335913e-11
38.500, 8.30863e-11
38.500, 8.306422e-11
38.500, 8.308631e-11
38.500, 8.305319e-11
38.500, 8.291278e-11
38.500, 8.297796e-11
38.500, 8.294386e-11
38.500, 8.274927e-11
38.500, 8.27924e-11
39.000, 8.291574e-11
39.000, 8.295593e-11
39.000, 8.287765e-11
39.000, 8.267603e-11
39.000, 8.289975e-11
39.000, 8.303116e-11
39.000, 8.330597e-11
39.000, 8.340524e-11
39.000, 8.309034e-11
39.000, 8.323876e-11
39.500, 8.432809e-11
39.500, 8.395196e-11
39.500, 8.385365e-11
39.500, 8.372122e-11
39.500, 8.365403e-11
39.500, 8.355076e-11
39.500, 8.345241e-11
39.500, 8.336207e-11
39.500, 8.345141e-11
39.500, 8.334811e-11
40.000, 8.442835e-11
40.000, 8.442443e-11
40.000, 8.447348e-11
40.000, 8.431508e-11
40.000, 8.411143e-11
40.000, 8.437621e-11
40.000, 8.418165e-11
40.000, 8.40472e-11
40.000, 8.438832e-11
40.000, 8.427887e-11
40.500, 8.492089e-11
40.500, 8.494496e-11
40.500, 8.487476e-11
40.500, 8.479654e-11
40.500, 8.492291e-11
40.500, 8.476449e-11
40.500, 8.453271e-11
40.500, 8.448655e-11
40.500, 8.470226e-11
40.500, 8.449362e-11
41.000, 8.564013e-11
41.000, 8.551475e-11
41.000, 8.549267e-11
41.000, 8.542644e-11
41.000, 8.536225e-11
41.000, 8.542547e-11
41.000, 8.511353e-11
41.000, 8.511247e-11
41.000, 8.522982e-11
41.000, 8.522982e-11
41.500, 8.596208e-11
41.500, 8.603727e-11
41.500, 8.588481e-11
41.500, 8.595003e-11
41.500, 8.587274e-11
41.500, 8.587684e-11
41.500, 8.571428e-11
41.500, 8.568919e-11
41.500, 8.569228e-11
41.500, 8.556887e-11
42.000, 8.673542e-11
42.000, 8.654988e-11
42.000, 8.643757e-11
42.000, 8.65318e-11
42.000, 8.666821e-11
42.000, 8.636226e-11
42.000, 8.64245e-11
42.000, 8.635225e-11
42.000, 8.629707e-11
42.000, 8.631217e-11
42.500, 8.68438e-11
42.500, 8.687586e-11
42.500, 8.68729e-11
42.500, 8.660606e-11
42.500, 8.660303e-11
42.500, 8.656793e-11
42.500, 8.646769e-11
42.500, 8.652781e-11
42.500, 8.657594e-11
42.500, 8.634721e-11
43.000, 8.668327e-11
43.000, 8.66652e-11
43.000, 8.643045e-11
43.000, 8.642051e-11
43.000, 8.640946e-11
43.000, 8.636932e-11
43.000, 8.643149e-11
43.000, 8.658695e-11
43.000, 8.631816e-11
43.000, 8.634924e-11
43.500, 8.799232e-11
43.500, 8.791508e-11
43.500, 8.752984e-11
43.500, 8.762314e-11
43.500, 8.772443e-11
43.500, 8.747872e-11
43.500, 8.724299e-11
43.500, 8.716578e-11
43.500, 8.708245e-11
43.500, 8.730414e-11
44.000, 8.839248e-11
44.000, 8.846968e-11
44.000, 8.831922e-11
44.000, 8.807254e-11
44.000, 8.81929e-11
44.000, 8.820188e-11
44.000, 8.791202e-11
44.000, 8.798228e-11
44.000, 8.793413e-11
44.000, 8.772645e-11
44.500, 8.880076e-11
44.500, 8.872855e-11
44.500, 8.86684e-11
44.500, 8.858302e-11
44.500, 8.850685e-11
44.500, 8.83885e-11
44.500, 8.835335e-11
44.500, 8.824205e-11
44.500, 8.829414e-11
44.500, 8.831631e-11
45.000, 8.901138e-11
45.000, 8.892008e-11
45.000, 8.894721e-11
45.000, 8.892216e-11
45.000, 8.89091e-11
45.000, 8.886093e-11
45.000, 8.866839e-11
45.000, 8.864228e-11
45.000, 8.860711e-11
45.000, 8.865732e-11
45.500, 8.931332e-11
45.500, 8.92281e-11
45.500, 8.907557e-11
45.500, 8.899931e-11
45.500, 8.90425e-11
45.500, 8.888105e-11
45.500, 8.884488e-11
45.500, 8.874056e-11
45.500, 8.878272e-11
45.500, 8.888298e-11
46.000, 8.837144e-11
46.000, 8.819395e-11
46.000, 8.807147e-11
46.000, 8.83082e-11
46.000, 8.832323e-11
46.000, 8.882584e-11
46.000, 8.824803e-11
46.000, 8.830119e-11
46.000, 8.857606e-11
46.000, 8.812463e-11
46.500, 8.887097e-11
46.500, 8.885796e-11
46.500, 8.881682e-11
46.500, 8.882682e-11
46.500, 8.859614e-11
46.500, 8.871546e-11
46.500, 8.873056e-11
46.500, 8.858309e-11
46.500, 8.852891e-11
46.500, 8.870848e-11
47.000, 8.948085e-11
47.000, 8.962724e-11
47.000, 8.922504e-11
47.000, 8.913775e-11
47.000, 8.94347e-11
47.000, 8.911571e-11
47.000, 8.909866e-11
47.000, 8.91448e-11
47.000, 8.89442e-11
47.000, 8.907163e-11
47.500, 8.998033e-11
47.500, 8.996425e-11
47.500, 8.98078e-11
47.500, 8.979975e-11
47.500, 8.954001e-11
47.500, 8.95651e-11
47.500, 8.955498e-11
47.500, 8.964227e-11
47.500, 8.940158e-11
47.500, 8.952297e-11
48.000, 9.145986e-11
48.000, 9.114594e-11
48.000, 9.110677e-11
48.000, 9.117903e-11
48.000, 9.099745e-11
48.000, 9.087416e-11
48.000, 9.102953e-11
48.000, 9.071357e-11
48.000, 9.088814e-11
48.000, 9.087407e-11
48.500, 9.052098e-11
48.500, 9.015887e-11
48.500, 9.006459e-11
48.500, 8.972556e-11
48.500, 8.99673e-11
48.500, 8.990212e-11
48.500, 8.98279e-11
48.500, 8.945369e-11
48.500, 8.964335e-11
48.500, 8.965329e-11
49.000, 9.195637e-11
49.000, 9.19293e-11
49.000, 9.20647e-11
49.000, 9.194633e-11
49.000, 9.187407e-11
49.000, 9.192924e-11
49.000, 9.171865e-11
49.000, 9.154416e-11
49.000, 9.161936e-11
49.000, 9.160932e-11
49.500, 9.273182e-11
49.500, 9.211285e-11
49.500, 9.104556e-11
49.500, 9.105663e-11
49.500, 9.151806e-11
49.500, 9.190821e-11
49.500, 9.21911e-11
49.500, 9.223918e-11
49.500, 9.225025e-11
49.500, 9.235756e-11
50.000, 9.318015e-11
50.000, 9.303562e-11
50.000, 9.309682e-11
50.000, 9.291633e-11
50.000, 9.295244e-11
50.000, 9.294037e-11
50.000, 9.286413e-11
50.000, 9.270162e-11
50.000, 9.270068e-11
50.000, 9.274077e-11
50.500, 9.358533e-11
50.500, 9.153807e-11
50.500, 9.197444e-11
50.500, 9.028524e-11
50.500, 9.004049e-11
50.500, 8.971751e-11
50.500, 9.004251e-11
50.500, 8.972655e-11
50.500, 8.978674e-11
50.500, 8.978873e-11
51.000, 8.953994e-11
51.000, 8.923203e-11
51.000, 8.873958e-11
51.000, 8.872048e-11
51.000, 8.811155e-11
51.000, 8.959914e-11
51.000, 9.009959e-11
51.000, 9.046379e-11
51.000, 9.058623e-11
51.000, 8.973759e-11
51.500, 9.050195e-11
51.500, 9.025514e-11
51.500, 9.026321e-11
51.500, 9.054812e-11
51.500, 9.048587e-11
51.500, 8.977873e-11
51.500, 8.944268e-11
51.500, 8.980986e-11
51.500, 9.009868e-11
51.500, 9.015087e-11
52.000, 9.132549e-11
52.000, 9.133246e-11
52.000, 9.042567e-11
52.000, 9.074066e-11
52.000, 9.074669e-11
52.000, 9.104262e-11
52.000, 9.091117e-11
52.000, 9.114991e-11
52.000, 9.120406e-11
52.000, 9.12462e-11
52.500, 9.12451e-11
52.500, 9.117501e-11
52.500, 9.089209e-11
52.500, 9.041064e-11
52.500, 9.072158e-11
52.500, 9.126026e-11
52.500, 9.131149e-11
52.500, 9.062832e-11
52.500, 8.992915e-11
52.500, 9.014688e-11
53.000, 9.124018e-11
53.000, 9.102453e-11
53.000, 9.105463e-11
53.000, 9.100445e-11
53.000, 9.103453e-11
53.000, 9.124916e-11
53.000, 9.117301e-11
53.000, 9.097037e-11
53.000, 9.089314e-11
53.000, 9.093427e-11
53.500, 9.200853e-11
53.500, 9.205661e-11
53.500, 9.327542e-11
53.500, 9.249002e-11
53.500, 9.208169e-11
53.500, 9.172059e-11
53.500, 9.162732e-11
53.500, 9.176982e-11
53.500, 9.10606e-11
53.500, 9.186809e-11
54.000, 9.276378e-11
54.000, 9.30226e-11
54.000, 9.268859e-11
54.000, 9.226028e-11
54.000, 9.212688e-11
54.000, 9.201551e-11
54.000, 9.278988e-11
54.000, 9.269661e-11
54.000, 9.188212e-11
54.000, 9.170358e-11
54.500, 9.229643e-11
54.500, 9.196437e-11
54.500, 9.299553e-11
54.500, 9.239675e-11
54.500, 9.280093e-11
54.500, 9.27447e-11
54.500, 9.239669e-11
54.500, 9.263847e-11
54.500, 9.295744e-11
54.500, 9.257123e-11
55.000, 9.318712e-11
55.000, 9.277686e-11
55.000, 9.286415e-11
55.000, 9.257126e-11
55.000, 9.252311e-11
55.000, 9.272073e-11
55.000, 9.248195e-11
55.000, 9.244878e-11
55.000, 9.254917e-11
55.000, 9.241881e-11
55.500, 9.309181e-11
55.500, 9.286618e-11
55.500, 9.298755e-11
55.500, 9.289625e-11
55.500, 9.329339e-11
55.500, 9.274279e-11
55.500, 9.26906e-11
55.500, 9.26585e-11
55.500, 9.276683e-11
55.500, 9.267451e-11
56.000, 9.376987e-11
56.000, 9.318512e-11
56.000, 9.278093e-11
56.000, 9.293529e-11
56.000, 9.30507e-11
56.000, 9.280098e-11
56.000, 9.282299e-11
56.000, 9.261935e-11
56.000, 9.286914e-11
56.000, 9.279394e-11
56.500, 9.356532e-11
56.500, 9.339977e-11
56.500, 9.417512e-11
56.500, 9.413099e-11
56.500, 9.404671e-11
56.500, 9.422228e-11
56.500, 9.408588e-11
56.500, 9.349303e-11
56.500, 9.273572e-11
56.500, 9.401464e-11
57.000, 9.505681e-11
57.000, 9.486225e-11
57.000, 9.465562e-11
57.000, 9.422831e-11
57.000, 9.385812e-11
57.000, 9.3802e-11
57.000, 9.378188e-11
57.000, 9.381603e-11
57.000, 9.40458e-11
57.000, 9.430753e-11
57.500, 9.498253e-11
57.500, 9.444894e-11
57.500, 9.549414e-11
57.500, 9.538374e-11
57.500, 9.514309e-11
57.500, 9.524137e-11
57.500, 9.52464e-11
57.500, 9.51391e-11
57.500, 9.513098e-11
57.500, 9.518117e-11
58.000, 9.527049e-11
58.000, 9.503878e-11
58.000, 9.482212e-11
58.000, 9.509196e-11
58.000, 9.511299e-11
58.000, 9.49615e-11
58.000, 9.479901e-11
58.000, 9.487428e-11
58.000, 9.475084e-11
58.000, 9.464965e-11
58.500, 9.545805e-11
58.500, 9.542099e-11
58.500, 9.518726e-11
58.500, 9.515312e-11
58.500, 9.531858e-11
58.500, 9.513608e-11
58.500, 9.472384e-11
58.500, 9.505989e-11
58.500, 9.49726e-11
58.500, 9.489131e-11
59.000, 9.710608e-11
59.000, 9.615814e-11
59.000, 9.619132e-11
59.000, 9.562563e-11
59.000, 9.545508e-11
59.000, 9.556537e-11
59.000, 9.536177e-11
59.000, 9.537177e-11
59.000, 9.528858e-11
59.000, 9.535472e-11
59.500, 9.630061e-11
59.500, 9.638387e-11
59.500, 9.55493e-11
59.500, 9.611201e-11
59.500, 9.601274e-11
59.500, 9.59034e-11
59.500, 9.603081e-11
59.500, 9.58141e-11
59.500, 9.584321e-11
59.500, 9.576494e-11
